# Time(ps) Perimeter(A)
0.0000 1872.9737
100.0000 1820.3647
200.0000 1812.9362
300.0000 1802.7886
400.0000 1803.7403
500.0000 1784.7209
600.0000 1777.0404
700.0000 1779.8486
800.0000 1774.4126
900.0000 1770.2244
1000.0000 1778.5309
1100.0000 1765.2404
1200.0000 1764.3281
1300.0000 1764.0476
1400.0000 1752.0083
1500.0000 1746.7425
1600.0000 1756.3178
1700.0000 1741.7859
1800.0000 1743.5666
1900.0000 1743.6722
2000.0000 1739.7846
2100.0000 1735.1310
2200.0000 1723.6453
2300.0000 1721.9528
2400.0000 1735.7857
2500.0000 1727.2756
2600.0000 1723.5157
2700.0000 1723.2231
2800.0000 1713.0687
2900.0000 1715.3173
3000.0000 1725.0680
3100.0000 1717.9958
3200.0000 1710.6533
3300.0000 1707.4870
3400.0000 1699.7225
3500.0000 1704.9413
3600.0000 1706.5578
3700.0000 1704.0580
3800.0000 1701.5381
3900.0000 1698.1129
4000.0000 1692.1998
4100.0000 1693.1071
4200.0000 1691.5690
4300.0000 1690.4089
4400.0000 1693.7324
4500.0000 1685.5639
4600.0000 1688.0195
4700.0000 1684.0194
4800.0000 1686.9270
4900.0000 1688.7654
5000.0000 1687.3103
5100.0000 1695.0201
5200.0000 1675.7971
5300.0000 1689.7067
5400.0000 1675.8741
5500.0000 1673.5603
5600.0000 1675.8047
5700.0000 1675.7230
5800.0000 1676.6194
5900.0000 1683.7296
6000.0000 1681.7918
6100.0000 1680.2972
6200.0000 1669.2872
6300.0000 1714.0404
6400.0000 1678.0365
6500.0000 1683.7331
6600.0000 1682.1066
6700.0000 1673.0044
6800.0000 1670.5602
6900.0000 1677.5141
7000.0000 1677.7601
7100.0000 1670.6807
7200.0000 1674.0962
7300.0000 1670.3599
7400.0000 1672.7605
7500.0000 1660.1092
7600.0000 1660.7250
7700.0000 1662.4339
7800.0000 1662.0253
7900.0000 1656.2072
8000.0000 1665.7711
8100.0000 1669.3899
8200.0000 1700.1302
8300.0000 1662.2640
8400.0000 1668.0138
8500.0000 1662.3813
8600.0000 1661.3525
8700.0000 1657.1168
8800.0000 1661.8569
8900.0000 1666.2057
9000.0000 1664.1743
9100.0000 1667.1213
9200.0000 1657.9964
9300.0000 1656.4380
9400.0000 1655.2298
9500.0000 1659.9337
9600.0000 1660.2152
9700.0000 1656.6521
9800.0000 1651.7918
9900.0000 1658.6573
10000.0000 1652.2332
10100.0000 1653.1201
10200.0000 1637.6309
10300.0000 1649.3290
10400.0000 1633.3174
10500.0000 1643.7840
10600.0000 1634.2456
10700.0000 1638.5696
10800.0000 1642.1738
10900.0000 1636.7821
11000.0000 1641.5507
11100.0000 1654.7993
11200.0000 1634.5579
11300.0000 1635.0564
11400.0000 1631.4154
11500.0000 1634.5971
11600.0000 1650.5568
11700.0000 1661.0356
11800.0000 1657.0942
11900.0000 1646.8535
12000.0000 1645.7404
12100.0000 1639.1816
12200.0000 1650.5185
12300.0000 1639.8336
12400.0000 1650.8621
12500.0000 1642.0511
12600.0000 1668.3797
12700.0000 1637.7465
12800.0000 1638.9732
12900.0000 1663.4010
13000.0000 1652.1166
13100.0000 1640.1625
13200.0000 1633.2265
13300.0000 1632.8230
13400.0000 1632.4837
13500.0000 1637.7136
13600.0000 1630.3617
13700.0000 1621.0348
13800.0000 1622.5670
13900.0000 1619.0249
14000.0000 1621.2042
14100.0000 1625.1015
14200.0000 1616.3275
14300.0000 1626.1034
14400.0000 1613.9468
14500.0000 1610.4354
14600.0000 1619.4568
14700.0000 1622.8650
14800.0000 1626.6492
14900.0000 1620.2987
15000.0000 1622.6276
15100.0000 1619.5776
15200.0000 1622.0460
15300.0000 1624.8458
15400.0000 1618.6032
15500.0000 1618.7652
15600.0000 1610.7607
15700.0000 1622.3598
15800.0000 1628.3330
15900.0000 1626.1573
16000.0000 1623.2569
16100.0000 1631.9459
16200.0000 1628.2553
16300.0000 1622.1905
16400.0000 1619.1348
16500.0000 1617.4546
16600.0000 1622.0450
16700.0000 1617.7968
16800.0000 1614.6879
16900.0000 1626.8038
17000.0000 1617.8494
17100.0000 1612.2104
17200.0000 1622.5512
17300.0000 1615.0719
17400.0000 1608.1998
17500.0000 1608.6282
17600.0000 1611.1986
17700.0000 1634.5221
17800.0000 1628.5423
17900.0000 1620.5851
18000.0000 1627.0946
18100.0000 1615.3044
18200.0000 1604.5742
18300.0000 1613.0084
18400.0000 1612.7669
18500.0000 1624.2238
18600.0000 1617.7530
18700.0000 1620.0416
18800.0000 1610.2808
18900.0000 1599.9422
19000.0000 1619.9418
19100.0000 1606.1008
19200.0000 1596.1191
19300.0000 1613.1967
19400.0000 1602.1640
19500.0000 1613.1951
19600.0000 1599.6296
19700.0000 1613.5633
19800.0000 1605.5551
19900.0000 1602.6358
20000.0000 1619.9167
20100.0000 1602.4598
20200.0000 1605.0255
20300.0000 1600.1438
20400.0000 1607.1614
20500.0000 1592.7059
20600.0000 1597.7185
20700.0000 1609.6041
20800.0000 1601.6516
20900.0000 1596.4847
21000.0000 1598.6431
21100.0000 1595.0734
21200.0000 1596.7143
21300.0000 1595.8125
21400.0000 1587.4532
21500.0000 1602.3425
21600.0000 1594.6988
21700.0000 1593.4837
21800.0000 1594.7618
21900.0000 1603.0033
22000.0000 1586.4909
22100.0000 1592.4399
22200.0000 1591.4673
22300.0000 1583.6839
22400.0000 1586.4553
22500.0000 1591.6633
22600.0000 1584.8865
22700.0000 1587.7699
22800.0000 1586.2152
22900.0000 1588.4689
23000.0000 1584.8300
23100.0000 1579.2356
23200.0000 1575.5668
23300.0000 1579.8424
23400.0000 1586.6076
23500.0000 1582.3721
23600.0000 1583.5002
23700.0000 1596.8210
23800.0000 1588.0651
23900.0000 1592.8186
24000.0000 1593.2435
24100.0000 1595.4519
24200.0000 1581.8984
24300.0000 1588.1241
24400.0000 1596.2751
24500.0000 1584.4799
24600.0000 1580.7267
24700.0000 1589.2068
24800.0000 1580.3228
24900.0000 1605.9513
25000.0000 1581.0874
25100.0000 1581.5959
25200.0000 1578.6792
25300.0000 1577.8777
25400.0000 1582.5397
25500.0000 1610.3283
25600.0000 1587.1029
25700.0000 1580.1665
25800.0000 1579.3877
25900.0000 1582.8226
26000.0000 1574.2774
26100.0000 1576.5214
26200.0000 1581.6357
26300.0000 1581.9464
26400.0000 1580.6456
26500.0000 1578.7959
26600.0000 1579.1562
26700.0000 1626.4052
26800.0000 1582.7940
26900.0000 1574.9057
27000.0000 1581.0232
27100.0000 1572.6229
27200.0000 1570.1236
27300.0000 1576.1408
27400.0000 1568.9917
27500.0000 1560.0843
27600.0000 1571.8877
27700.0000 1571.9381
27800.0000 1565.8309
27900.0000 1577.3436
28000.0000 1579.9705
28100.0000 1565.6520
28200.0000 1570.2623
28300.0000 1567.7037
28400.0000 1588.9724
28500.0000 1585.2710
28600.0000 1572.7626
28700.0000 1577.7611
28800.0000 1569.7478
28900.0000 1582.2556
29000.0000 1573.2032
29100.0000 1593.2745
29200.0000 1584.4451
29300.0000 1580.8497
29400.0000 1624.5079
29500.0000 1577.1742
29600.0000 1582.1285
29700.0000 1576.5498
29800.0000 1589.4260
29900.0000 1596.0077
30000.0000 1589.7478
30100.0000 1582.4729
30200.0000 1586.4044
30300.0000 1585.0252
30400.0000 1580.3068
30500.0000 1577.7917
30600.0000 1583.8148
30700.0000 1583.9547
30800.0000 1588.7433
30900.0000 1585.6747
31000.0000 1583.6145
31100.0000 1590.7212
31200.0000 1585.4079
31300.0000 1573.3758
31400.0000 1578.1221
31500.0000 1585.6074
31600.0000 1563.3207
31700.0000 1571.1666
31800.0000 1571.2878
31900.0000 1569.8312
32000.0000 1564.7173
32100.0000 1573.5940
32200.0000 1571.7302
32300.0000 1564.8950
32400.0000 1570.7753
32500.0000 1557.9855
32600.0000 1569.9429
32700.0000 1554.3310
32800.0000 1551.6447
32900.0000 1583.6127
33000.0000 1543.8767
33100.0000 1573.8160
33200.0000 1591.3249
33300.0000 1550.3547
33400.0000 1547.6810
33500.0000 1560.4038
33600.0000 1551.6139
33700.0000 1549.3572
33800.0000 1547.7068
33900.0000 1548.2224
34000.0000 1549.3163
34100.0000 1557.2180
34200.0000 1569.6661
34300.0000 1542.8945
34400.0000 1530.4117
34500.0000 1537.8964
34600.0000 1539.3047
34700.0000 1540.8269
34800.0000 1544.9034
34900.0000 1545.4592
35000.0000 1545.1476
35100.0000 1537.9754
35200.0000 1543.2242
35300.0000 1536.7387
35400.0000 1532.4248
35500.0000 1544.0484
35600.0000 1530.8523
35700.0000 1539.6474
35800.0000 1541.2122
35900.0000 1532.3018
36000.0000 1547.4166
36100.0000 1528.7473
36200.0000 1539.9636
36300.0000 1529.8727
36400.0000 1526.1891
36500.0000 1531.0511
36600.0000 1538.7418
36700.0000 1530.9860
36800.0000 1528.9294
36900.0000 1521.7315
37000.0000 1532.8166
37100.0000 1538.6875
37200.0000 1533.2454
37300.0000 1539.2647
37400.0000 1539.3618
37500.0000 1522.1983
37600.0000 1527.3709
37700.0000 1512.2238
37800.0000 1523.7751
37900.0000 1538.7675
38000.0000 1526.3446
38100.0000 1527.9458
38200.0000 1521.5978
38300.0000 1513.1735
38400.0000 1523.1513
38500.0000 1514.4931
38600.0000 1512.1115
38700.0000 1509.8220
38800.0000 1510.5072
38900.0000 1544.7336
39000.0000 1510.1563
39100.0000 1506.0949
39200.0000 1511.9215
39300.0000 1501.7824
39400.0000 1503.7375
39500.0000 1501.2934
39600.0000 1500.7261
39700.0000 1500.4087
39800.0000 1503.6371
39900.0000 1492.6863
40000.0000 1495.7019
40100.0000 1495.9822
40200.0000 1504.5795
40300.0000 1494.4939
40400.0000 1506.9828
40500.0000 1507.7600
40600.0000 1494.8428
40700.0000 1495.6241
40800.0000 1501.9664
40900.0000 1498.3923
41000.0000 1485.5376
41100.0000 1503.1840
41200.0000 1490.4014
41300.0000 1486.4502
41400.0000 1486.4410
41500.0000 1490.2823
41600.0000 1488.0673
41700.0000 1490.2265
41800.0000 1484.3480
41900.0000 1486.1419
42000.0000 1487.2376
42100.0000 1479.0796
42200.0000 1487.9807
42300.0000 1493.0986
42400.0000 1479.7272
42500.0000 1475.6416
42600.0000 1477.5095
42700.0000 1487.8185
42800.0000 1481.8304
42900.0000 1476.2323
43000.0000 1478.9098
43100.0000 1475.3658
43200.0000 1470.9550
43300.0000 1468.7325
43400.0000 1468.2861
43500.0000 1476.3740
43600.0000 1460.8608
43700.0000 1459.4601
43800.0000 1498.2900
43900.0000 1465.1626
44000.0000 1462.2175
44100.0000 1455.0092
44200.0000 1451.9278
44300.0000 1460.9640
44400.0000 1445.4477
44500.0000 1449.7815
44600.0000 1444.0238
44700.0000 1445.6111
44800.0000 1441.0284
44900.0000 1441.6793
45000.0000 1436.5732
45100.0000 1429.3833
45200.0000 1427.9808
45300.0000 1424.8249
45400.0000 1427.7649
45500.0000 1420.7480
45600.0000 1447.2509
45700.0000 1424.7352
45800.0000 1422.6663
45900.0000 1422.5248
46000.0000 1421.0569
46100.0000 1424.7482
46200.0000 1419.3541
46300.0000 1417.5329
46400.0000 1407.8564
46500.0000 1416.1264
46600.0000 1403.8347
46700.0000 1422.1569
46800.0000 1402.2682
46900.0000 1392.6451
47000.0000 1389.3515
47100.0000 1381.4381
47200.0000 1380.1694
47300.0000 1390.9620
47400.0000 1395.7806
47500.0000 1389.6546
47600.0000 1387.0745
47700.0000 1392.4840
47800.0000 1377.0183
47900.0000 1387.9458
48000.0000 1382.4015
48100.0000 1373.5312
48200.0000 1374.8346
48300.0000 1376.9093
48400.0000 1379.5948
48500.0000 1374.4071
48600.0000 1369.5083
48700.0000 1368.9100
48800.0000 1372.3021
48900.0000 1361.5140
49000.0000 1355.0022
49100.0000 1349.5328
49200.0000 1355.1897
49300.0000 1354.3985
49400.0000 1350.1430
49500.0000 1346.0976
49600.0000 1345.4548
49700.0000 1342.0430
49800.0000 1335.5315
49900.0000 1329.5167
50000.0000 1330.4689
50100.0000 1325.6990
50200.0000 1313.4456
50300.0000 1306.0135
50400.0000 1315.1794
50500.0000 1306.2603
50600.0000 1312.9925
50700.0000 1324.3999
50800.0000 1319.5099
50900.0000 1305.4455
51000.0000 1306.8784
51100.0000 1314.8589
51200.0000 1306.2396
51300.0000 1305.5885
51400.0000 1315.0356
51500.0000 1306.9167
51600.0000 1307.7810
51700.0000 1308.5797
51800.0000 1305.5566
51900.0000 1307.5114
52000.0000 1300.2187
52100.0000 1299.4495
52200.0000 1296.1362
52300.0000 1288.8421
52400.0000 1295.4661
52500.0000 1284.1790
52600.0000 1286.5128
52700.0000 1277.6762
52800.0000 1269.0286
52900.0000 1278.0760
53000.0000 1271.9030
53100.0000 1283.1300
53200.0000 1270.2116
53300.0000 1264.6610
53400.0000 1255.0599
53500.0000 1260.6673
53600.0000 1258.4614
53700.0000 1248.0326
53800.0000 1253.0732
53900.0000 1249.6536
54000.0000 1250.5601
54100.0000 1255.0985
54200.0000 1241.4105
54300.0000 1252.8735
54400.0000 1252.0690
54500.0000 1248.2550
54600.0000 1242.0675
54700.0000 1234.3052
54800.0000 1236.7098
54900.0000 1224.2059
55000.0000 1226.3874
55100.0000 1227.8374
55200.0000 1228.6701
55300.0000 1224.9233
55400.0000 1235.8021
55500.0000 1224.5160
55600.0000 1223.4742
55700.0000 1213.4046
55800.0000 1213.2299
55900.0000 1212.0375
56000.0000 1208.2332
56100.0000 1198.8047
56200.0000 1198.5680
56300.0000 1188.4212
56400.0000 1189.7560
56500.0000 1196.7323
56600.0000 1190.4788
56700.0000 1179.6255
56800.0000 1183.1433
56900.0000 1190.0060
57000.0000 1180.1304
57100.0000 1176.9790
57200.0000 1171.9216
57300.0000 1164.0613
57400.0000 1145.0904
57500.0000 1136.2652
57600.0000 1143.7345
57700.0000 1145.6977
57800.0000 1153.8512
57900.0000 1158.9289
58000.0000 1153.3246
58100.0000 1140.2738
58200.0000 1144.2019
58300.0000 1134.1467
58400.0000 1123.2484
58500.0000 1128.5901
58600.0000 1133.7953
58700.0000 1141.0902
58800.0000 1128.4133
58900.0000 1128.5870
59000.0000 1117.9701
59100.0000 1128.8901
59200.0000 1131.5729
59300.0000 1122.4271
59400.0000 1119.9791
59500.0000 1110.1145
59600.0000 1111.8716
59700.0000 1115.4772
59800.0000 1110.6272
59900.0000 1116.0416
60000.0000 1100.3721
60100.0000 1108.3014
60200.0000 1100.4985
60300.0000 1098.5290
60400.0000 1096.0574
60500.0000 1091.4832
60600.0000 1096.1209
60700.0000 1089.6951
60800.0000 1088.7049
60900.0000 1091.1474
61000.0000 1095.2712
61100.0000 1088.2310
61200.0000 1089.9908
61300.0000 1085.5025
61400.0000 1087.1578
61500.0000 1079.2155
61600.0000 1076.2182
61700.0000 1076.8558
61800.0000 1073.0319
61900.0000 1074.8074
62000.0000 1072.0101
62100.0000 1070.8174
62200.0000 1065.5953
62300.0000 1059.1101
62400.0000 1054.6441
62500.0000 1048.8058
62600.0000 1049.2979
62700.0000 1049.3912
62800.0000 1047.9299
62900.0000 1042.9567
63000.0000 1045.1264
63100.0000 1033.6062
63200.0000 1038.7041
63300.0000 1038.3675
63400.0000 1025.9188
63500.0000 1024.4124
63600.0000 1024.9779
63700.0000 1025.2760
63800.0000 1027.5184
63900.0000 1025.4253
64000.0000 1020.3220
64100.0000 1010.1529
64200.0000 1020.3168
64300.0000 1005.4841
64400.0000 996.1792
64500.0000 994.7467
64600.0000 983.8747
64700.0000 987.2087
64800.0000 987.6757
64900.0000 983.2107
65000.0000 975.4071
65100.0000 965.2060
65200.0000 966.4053
65300.0000 967.1176
65400.0000 961.7925
65500.0000 964.5753
65600.0000 953.6655
65700.0000 960.6817
65800.0000 959.0123
65900.0000 957.5464
66000.0000 959.9577
66100.0000 957.2154
66200.0000 952.6171
66300.0000 936.6287
66400.0000 940.6061
66500.0000 974.6115
66600.0000 985.2081
66700.0000 930.8293
66800.0000 935.9190
66900.0000 928.3891
67000.0000 933.1928
67100.0000 925.7448
67200.0000 916.0559
67300.0000 909.1111
67400.0000 913.7182
67500.0000 904.9937
67600.0000 904.0786
67700.0000 901.7856
67800.0000 902.9647
67900.0000 902.5711
68000.0000 911.6619
68100.0000 898.8701
68200.0000 896.3419
68300.0000 898.2070
68400.0000 898.9628
68500.0000 882.3471
68600.0000 872.5162
68700.0000 873.1978
68800.0000 867.7900
68900.0000 871.5445
69000.0000 866.6779
69100.0000 866.3258
69200.0000 861.4860
69300.0000 866.6140
69400.0000 871.8502
69500.0000 855.4746
69600.0000 855.1218
69700.0000 851.3055
69800.0000 844.3357
69900.0000 833.3037
70000.0000 837.9100
70100.0000 836.4121
70200.0000 818.8178
70300.0000 828.8438
70400.0000 851.5016
70500.0000 830.3681
70600.0000 827.3100
70700.0000 826.8753
70800.0000 814.4898
70900.0000 816.1864
71000.0000 817.4842
71100.0000 813.2081
71200.0000 807.3633
71300.0000 806.7716
71400.0000 796.3039
71500.0000 806.3264
71600.0000 793.7150
71700.0000 793.3838
71800.0000 827.2115
71900.0000 796.6581
72000.0000 794.6382
72100.0000 839.1328
72200.0000 778.0621
72300.0000 782.9830
72400.0000 780.7718
72500.0000 773.1868
72600.0000 781.0034
72700.0000 777.6893
72800.0000 784.9816
72900.0000 780.2714
73000.0000 768.9455
73100.0000 769.5743
73200.0000 758.8578
73300.0000 755.3995
73400.0000 755.8014
73500.0000 777.7293
73600.0000 744.0902
73700.0000 747.5096
73800.0000 745.6186
73900.0000 734.3645
74000.0000 741.6483
74100.0000 745.7839
74200.0000 735.0412
74300.0000 740.9925
74400.0000 733.7814
74500.0000 724.5385
74600.0000 717.9895
74700.0000 714.3509
74800.0000 711.4794
74900.0000 692.1415
75000.0000 697.8540
75100.0000 699.8045
75200.0000 703.2325
75300.0000 708.0898
75400.0000 693.5333
75500.0000 694.4918
75600.0000 681.0868
75700.0000 683.0695
75800.0000 687.6344
75900.0000 681.3457
76000.0000 687.2027
76100.0000 677.9994
76200.0000 681.7800
76300.0000 675.5476
76400.0000 678.1419
76500.0000 670.6084
76600.0000 666.4870
76700.0000 664.3582
76800.0000 671.3501
76900.0000 661.7754
77000.0000 658.1369
77100.0000 647.8204
77200.0000 643.6343
77300.0000 642.3673
77400.0000 630.0502
77500.0000 630.4453
77600.0000 627.9324
77700.0000 656.6593
77800.0000 619.3668
77900.0000 621.3848
78000.0000 614.1302
78100.0000 609.5619
78200.0000 601.0154
78300.0000 600.7456
78400.0000 615.3101
78500.0000 594.7212
78600.0000 590.1942
78700.0000 584.8986
78800.0000 586.5030
78900.0000 586.9308
79000.0000 580.2505
79100.0000 576.3196
79200.0000 571.5907
79300.0000 572.4025
79400.0000 575.4489
79500.0000 568.9189
79600.0000 567.4480
79700.0000 558.2944
79800.0000 591.0419
79900.0000 550.5110
80000.0000 557.0273
80100.0000 551.8073
80200.0000 544.5546
80300.0000 545.9376
80400.0000 540.5126
80500.0000 544.2252
80600.0000 535.8110
80700.0000 531.2964
80800.0000 521.3332
80900.0000 526.9140
81000.0000 519.7874
81100.0000 522.0449
81200.0000 528.7255
81300.0000 543.8777
81400.0000 513.4231
81500.0000 540.5529
81600.0000 514.6818
81700.0000 518.3706
81800.0000 518.6999
81900.0000 517.6006
82000.0000 509.2920
82100.0000 507.6493
82200.0000 507.6769
82300.0000 507.8605
82400.0000 508.4487
82500.0000 506.8485
82600.0000 511.6038
82700.0000 506.9984
82800.0000 502.1420
82900.0000 505.6717
83000.0000 494.7540
83100.0000 491.8923
83200.0000 489.4226
83300.0000 496.4404
83400.0000 492.9537
83500.0000 496.8315
83600.0000 497.1126
83700.0000 498.8123
83800.0000 502.1623
83900.0000 495.7491
84000.0000 492.6302
84100.0000 494.5067
84200.0000 492.8400
84300.0000 484.5875
84400.0000 478.5944
84500.0000 474.8261
84600.0000 470.6970
84700.0000 477.4610
84800.0000 468.8803
84900.0000 470.8922
85000.0000 464.4268
85100.0000 464.8033
85200.0000 461.5771
85300.0000 466.9672
85400.0000 461.1977
85500.0000 459.6241
85600.0000 460.2422
85700.0000 451.2186
85800.0000 449.6124
85900.0000 442.0844
86000.0000 438.8274
86100.0000 429.7958
86200.0000 426.1375
86300.0000 436.0876
86400.0000 427.2415
86500.0000 421.9780
86600.0000 418.7596
86700.0000 418.9950
86800.0000 421.8312
86900.0000 414.1289
87000.0000 415.4230
87100.0000 414.1629
87200.0000 408.6015
87300.0000 412.1160
87400.0000 402.8183
87500.0000 403.6842
87600.0000 402.5784
87700.0000 397.8616
87800.0000 388.7119
87900.0000 387.1461
88000.0000 391.3872
88100.0000 385.9131
88200.0000 383.8078
88300.0000 376.7592
88400.0000 384.1073
88500.0000 376.9601
88600.0000 376.0286
88700.0000 369.7776
88800.0000 372.1015
88900.0000 364.8936
89000.0000 370.3321
89100.0000 359.2607
89200.0000 404.3353
89300.0000 355.7565
89400.0000 360.8527
89500.0000 351.5232
89600.0000 348.9327
89700.0000 345.9547
89800.0000 344.8620
89900.0000 341.9150
90000.0000 331.3985
90100.0000 328.4614
90200.0000 323.2573
90300.0000 327.5799
90400.0000 323.7992
90500.0000 317.9791
90600.0000 308.4676
90700.0000 305.9115
90800.0000 306.1409
90900.0000 338.8585
91000.0000 307.4746
91100.0000 294.5033
91200.0000 293.4634
91300.0000 294.0498
91400.0000 295.0716
91500.0000 301.3361
91600.0000 342.7223
91700.0000 284.8501
91800.0000 303.9699
91900.0000 296.3511
92000.0000 282.0160
92100.0000 272.2802
92200.0000 300.8393
92300.0000 271.3970
92400.0000 276.2283
92500.0000 268.8260
92600.0000 275.9783
92700.0000 272.4084
92800.0000 272.2438
92900.0000 269.3695
93000.0000 261.2429
93100.0000 257.3635
93200.0000 252.9860
93300.0000 259.9393
93400.0000 255.4981
93500.0000 250.0841
93600.0000 242.2061
93700.0000 240.2398
93800.0000 236.0611
93900.0000 232.9532
94000.0000 234.6433
94100.0000 232.4620
94200.0000 228.2773
94300.0000 221.8477
94400.0000 220.0725
94500.0000 223.5245
94600.0000 217.1465
94700.0000 214.8252
94800.0000 211.3207
94900.0000 215.0077
95000.0000 243.5949
95100.0000 200.7402
95200.0000 197.5516
95300.0000 194.8027
95400.0000 205.2743
95500.0000 198.1004
95600.0000 186.9697
95700.0000 192.1006
95800.0000 188.9614
95900.0000 182.9982
96000.0000 192.0328
96100.0000 190.0987
96200.0000 186.4026
96300.0000 189.5077
96400.0000 191.9081
96500.0000 184.5499
96600.0000 192.2791
96700.0000 184.9523
96800.0000 178.7826
96900.0000 199.3202
97000.0000 171.1397
97100.0000 177.9449
97200.0000 187.5803
97300.0000 176.7054
97400.0000 169.6756
97500.0000 191.8179
97600.0000 155.6569
97700.0000 157.2152
97800.0000 142.8997
97900.0000 143.5705
98000.0000 146.5182
98100.0000 157.1866
98200.0000 163.7153
98300.0000 154.2290
98400.0000 197.9811
98500.0000 140.6778
98600.0000 152.0768
98700.0000 124.0359
98800.0000 126.8615
98900.0000 106.2818
99000.0000 93.0916
99100.0000 70.0576
99200.0000 0.0000
99300.0000 0.0000
99400.0000 78.0697
99500.0000 0.0000
99600.0000 0.0000
99700.0000 0.0000
99800.0000 0.0000
99900.0000 0.0000
100000.0000 0.0000
100100.0000 0.0000
100200.0000 0.0000
100300.0000 0.0000
100400.0000 0.0000
100500.0000 0.0000
100600.0000 0.0000
100700.0000 0.0000
100800.0000 0.0000
100900.0000 0.0000
101000.0000 0.0000
101100.0000 0.0000
101200.0000 0.0000
101300.0000 0.0000
101400.0000 0.0000
101500.0000 0.0000
101600.0000 0.0000
101700.0000 0.0000
101800.0000 0.0000
101900.0000 0.0000
102000.0000 0.0000
102100.0000 0.0000
102200.0000 0.0000
102300.0000 0.0000
102400.0000 0.0000
102500.0000 0.0000
102600.0000 0.0000
102700.0000 0.0000
102800.0000 0.0000
102900.0000 0.0000
103000.0000 0.0000
103100.0000 0.0000
103200.0000 0.0000
103300.0000 0.0000
103400.0000 0.0000
103500.0000 0.0000
103600.0000 0.0000
103700.0000 0.0000
103800.0000 0.0000
103900.0000 0.0000
104000.0000 0.0000
104100.0000 0.0000
104200.0000 0.0000
104300.0000 0.0000
104400.0000 0.0000
104500.0000 0.0000
104600.0000 0.0000
104700.0000 0.0000
104800.0000 0.0000
104900.0000 0.0000
105000.0000 0.0000
105100.0000 0.0000
105200.0000 0.0000
105300.0000 0.0000
105400.0000 0.0000
105500.0000 0.0000
105600.0000 0.0000
105700.0000 0.0000
105800.0000 0.0000
105900.0000 0.0000
106000.0000 0.0000
106100.0000 0.0000
106200.0000 0.0000
106300.0000 0.0000
106400.0000 0.0000
106500.0000 0.0000
106600.0000 0.0000
106700.0000 0.0000
106800.0000 0.0000
106900.0000 0.0000
107000.0000 0.0000
107100.0000 0.0000
107200.0000 0.0000
107300.0000 0.0000
107400.0000 0.0000
107500.0000 0.0000
107600.0000 0.0000
107700.0000 0.0000
107800.0000 0.0000
107900.0000 0.0000
108000.0000 0.0000
108100.0000 0.0000
108200.0000 0.0000
108300.0000 0.0000
108400.0000 0.0000
108500.0000 0.0000
108600.0000 0.0000
108700.0000 0.0000
108800.0000 0.0000
108900.0000 0.0000
109000.0000 13.8621
109100.0000 0.0000
109200.0000 0.0000
109300.0000 0.0000
109400.0000 0.0000
109500.0000 0.0000
109600.0000 0.0000
109700.0000 0.0000
109800.0000 0.0000
109900.0000 0.0000
110000.0000 0.0000
110100.0000 0.0000
110200.0000 0.0000
110300.0000 0.0000
110400.0000 0.0000
110500.0000 0.0000
110600.0000 0.0000
110700.0000 0.0000
110800.0000 0.0000
110900.0000 0.0000
111000.0000 0.0000
111100.0000 0.0000
111200.0000 0.0000
111300.0000 0.0000
111400.0000 0.0000
111500.0000 0.0000
111600.0000 0.0000
111700.0000 0.0000
111800.0000 0.0000
111900.0000 0.0000
112000.0000 0.0000
112100.0000 0.0000
112200.0000 0.0000
112300.0000 0.0000
112400.0000 0.0000
112500.0000 0.0000
112600.0000 0.0000
112700.0000 0.0000
112800.0000 0.0000
112900.0000 0.0000
113000.0000 0.0000
113100.0000 0.0000
113200.0000 0.0000
113300.0000 0.0000
113400.0000 0.0000
113500.0000 0.0000
113600.0000 0.0000
113700.0000 0.0000
113800.0000 0.0000
113900.0000 0.0000
114000.0000 0.0000
114100.0000 0.0000
114200.0000 0.0000
114300.0000 0.0000
114400.0000 0.0000
114500.0000 0.0000
114600.0000 0.0000
114700.0000 0.0000
114800.0000 0.0000
114900.0000 0.0000
115000.0000 0.0000
115100.0000 0.0000
115200.0000 0.0000
115300.0000 0.0000
115400.0000 0.0000
115500.0000 0.0000
115600.0000 0.0000
115700.0000 0.0000
115800.0000 0.0000
115900.0000 0.0000
116000.0000 0.0000
116100.0000 0.0000
116200.0000 0.0000
116300.0000 0.0000
116400.0000 0.0000
116500.0000 0.0000
116600.0000 0.0000
116700.0000 0.0000
116800.0000 0.0000
116900.0000 0.0000
117000.0000 0.0000
117100.0000 0.0000
117200.0000 0.0000
117300.0000 0.0000
117400.0000 0.0000
117500.0000 0.0000
117600.0000 0.0000
117700.0000 0.0000
117800.0000 0.0000
117900.0000 0.0000
118000.0000 0.0000
118100.0000 0.0000
118200.0000 0.0000
118300.0000 0.0000
118400.0000 0.0000
118500.0000 0.0000
118600.0000 0.0000
118700.0000 0.0000
118800.0000 0.0000
118900.0000 0.0000
119000.0000 12.4610
119100.0000 0.0000
119200.0000 0.0000
119300.0000 0.0000
119400.0000 0.0000
119500.0000 0.0000
119600.0000 0.0000
119700.0000 0.0000
119800.0000 0.0000
119900.0000 0.0000
120000.0000 0.0000
120100.0000 0.0000
120200.0000 0.0000
120300.0000 0.0000
120400.0000 0.0000
120500.0000 0.0000
120600.0000 0.0000
120700.0000 0.0000
120800.0000 10.2348
120900.0000 0.0000
121000.0000 0.0000
121100.0000 0.0000
121200.0000 0.0000
121300.0000 0.0000
121400.0000 0.0000
121500.0000 0.0000
121600.0000 0.0000
121700.0000 0.0000
121800.0000 0.0000
121900.0000 0.0000
122000.0000 0.0000
122100.0000 0.0000
122200.0000 0.0000
122300.0000 0.0000
122400.0000 0.0000
122500.0000 0.0000
122600.0000 0.0000
122700.0000 0.0000
122800.0000 0.0000
122900.0000 0.0000
123000.0000 0.0000
123100.0000 0.0000
123200.0000 0.0000
123300.0000 0.0000
123400.0000 0.0000
123500.0000 0.0000
123600.0000 0.0000
123700.0000 0.0000
123800.0000 0.0000
123900.0000 0.0000
124000.0000 0.0000
124100.0000 0.0000
124200.0000 0.0000
124300.0000 0.0000
124400.0000 0.0000
124500.0000 0.0000
124600.0000 0.0000
124700.0000 0.0000
124800.0000 0.0000
124900.0000 0.0000
125000.0000 0.0000
125100.0000 0.0000
125200.0000 0.0000
125300.0000 0.0000
125400.0000 0.0000
125500.0000 0.0000
125600.0000 0.0000
125700.0000 0.0000
125800.0000 0.0000
125900.0000 0.0000
126000.0000 0.0000
126100.0000 0.0000
126200.0000 0.0000
126300.0000 0.0000
126400.0000 0.0000
126500.0000 0.0000
126600.0000 0.0000
126700.0000 0.0000
126800.0000 0.0000
126900.0000 0.0000
127000.0000 0.0000
127100.0000 0.0000
127200.0000 0.0000
127300.0000 0.0000
127400.0000 0.0000
127500.0000 0.0000
127600.0000 0.0000
127700.0000 0.0000
127800.0000 0.0000
127900.0000 0.0000
128000.0000 0.0000
128100.0000 0.0000
128200.0000 0.0000
128300.0000 0.0000
128400.0000 0.0000
128500.0000 0.0000
128600.0000 0.0000
128700.0000 0.0000
128800.0000 0.0000
128900.0000 0.0000
129000.0000 0.0000
129100.0000 0.0000
129200.0000 0.0000
129300.0000 0.0000
129400.0000 0.0000
129500.0000 0.0000
129600.0000 0.0000
129700.0000 0.0000
129800.0000 0.0000
129900.0000 0.0000
130000.0000 0.0000
130100.0000 0.0000
130200.0000 0.0000
130300.0000 0.0000
130400.0000 0.0000
130500.0000 0.0000
130600.0000 0.0000
130700.0000 0.0000
130800.0000 0.0000
130900.0000 0.0000
131000.0000 0.0000
131100.0000 0.0000
131200.0000 0.0000
131300.0000 0.0000
131400.0000 0.0000
131500.0000 0.0000
131600.0000 0.0000
131700.0000 0.0000
131800.0000 0.0000
131900.0000 0.0000
132000.0000 0.0000
132100.0000 0.0000
132200.0000 0.0000
132300.0000 0.0000
132400.0000 0.0000
132500.0000 0.0000
132600.0000 0.0000
132700.0000 0.0000
132800.0000 0.0000
132900.0000 0.0000
133000.0000 0.0000
133100.0000 0.0000
133200.0000 0.0000
133300.0000 0.0000
133400.0000 0.0000
133500.0000 0.0000
133600.0000 0.0000
133700.0000 0.0000
133800.0000 0.0000
133900.0000 0.0000
134000.0000 0.0000
134100.0000 0.0000
134200.0000 0.0000
134300.0000 0.0000
134400.0000 0.0000
134500.0000 0.0000
134600.0000 0.0000
134700.0000 0.0000
134800.0000 0.0000
134900.0000 0.0000
135000.0000 0.0000
135100.0000 0.0000
135200.0000 0.0000
135300.0000 0.0000
135400.0000 0.0000
135500.0000 0.0000
135600.0000 0.0000
135700.0000 0.0000
135800.0000 0.0000
135900.0000 0.0000
136000.0000 0.0000
136100.0000 0.0000
136200.0000 0.0000
136300.0000 0.0000
136400.0000 0.0000
136500.0000 0.0000
136600.0000 0.0000
136700.0000 0.0000
136800.0000 0.0000
136900.0000 0.0000
137000.0000 0.0000
137100.0000 0.0000
137200.0000 0.0000
137300.0000 0.0000
137400.0000 0.0000
137500.0000 0.0000
137600.0000 0.0000
137700.0000 0.0000
137800.0000 0.0000
137900.0000 0.0000
138000.0000 0.0000
138100.0000 0.0000
138200.0000 0.0000
138300.0000 0.0000
138400.0000 0.0000
138500.0000 0.0000
138600.0000 0.0000
138700.0000 0.0000
138800.0000 0.0000
138900.0000 0.0000
139000.0000 0.0000
139100.0000 0.0000
139200.0000 0.0000
139300.0000 0.0000
139400.0000 0.0000
139500.0000 0.0000
139600.0000 0.0000
139700.0000 0.0000
139800.0000 0.0000
139900.0000 0.0000
140000.0000 0.0000
140100.0000 0.0000
140200.0000 0.0000
140300.0000 0.0000
140400.0000 0.0000
140500.0000 0.0000
140600.0000 0.0000
140700.0000 0.0000
140800.0000 0.0000
140900.0000 0.0000
141000.0000 0.0000
141100.0000 0.0000
141200.0000 0.0000
141300.0000 0.0000
141400.0000 0.0000
141500.0000 0.0000
141600.0000 0.0000
141700.0000 0.0000
141800.0000 0.0000
141900.0000 0.0000
142000.0000 0.0000
142100.0000 0.0000
142200.0000 0.0000
142300.0000 0.0000
142400.0000 0.0000
142500.0000 0.0000
142600.0000 0.0000
142700.0000 0.0000
142800.0000 0.0000
142900.0000 0.0000
143000.0000 0.0000
143100.0000 0.0000
143200.0000 0.0000
143300.0000 0.0000
143400.0000 0.0000
143500.0000 0.0000
143600.0000 0.0000
143700.0000 0.0000
143800.0000 0.0000
143900.0000 0.0000
144000.0000 0.0000
144100.0000 0.0000
144200.0000 0.0000
144300.0000 0.0000
144400.0000 0.0000
144500.0000 0.0000
144600.0000 0.0000
144700.0000 0.0000
144800.0000 0.0000
144900.0000 0.0000
145000.0000 0.0000
145100.0000 0.0000
145200.0000 0.0000
145300.0000 0.0000
145400.0000 0.0000
145500.0000 0.0000
145600.0000 0.0000
145700.0000 0.0000
145800.0000 0.0000
145900.0000 0.0000
146000.0000 0.0000
146100.0000 0.0000
146200.0000 0.0000
146300.0000 0.0000
146400.0000 0.0000
146500.0000 0.0000
146600.0000 0.0000
146700.0000 0.0000
146800.0000 0.0000
146900.0000 0.0000
147000.0000 0.0000
147100.0000 0.0000
147200.0000 0.0000
147300.0000 0.0000
147400.0000 0.0000
147500.0000 0.0000
147600.0000 0.0000
147700.0000 0.0000
147800.0000 0.0000
147900.0000 0.0000
148000.0000 0.0000
148100.0000 0.0000
148200.0000 0.0000
148300.0000 0.0000
148400.0000 0.0000
148500.0000 0.0000
148600.0000 0.0000
148700.0000 0.0000
148800.0000 0.0000
148900.0000 0.0000
149000.0000 0.0000
149100.0000 0.0000
149200.0000 0.0000
149300.0000 0.0000
149400.0000 0.0000
149500.0000 0.0000
149600.0000 0.0000
149700.0000 0.0000
149800.0000 0.0000
149900.0000 0.0000
150000.0000 0.0000
150100.0000 0.0000
150200.0000 0.0000
150300.0000 0.0000
150400.0000 0.0000
150500.0000 0.0000
150600.0000 0.0000
150700.0000 0.0000
150800.0000 0.0000
150900.0000 0.0000
151000.0000 0.0000
151100.0000 0.0000
151200.0000 0.0000
151300.0000 0.0000
151400.0000 0.0000
151500.0000 0.0000
151600.0000 0.0000
151700.0000 0.0000
151800.0000 0.0000
151900.0000 0.0000
152000.0000 0.0000
152100.0000 0.0000
152200.0000 0.0000
152300.0000 0.0000
152400.0000 0.0000
152500.0000 0.0000
152600.0000 0.0000
152700.0000 0.0000
152800.0000 0.0000
152900.0000 0.0000
153000.0000 0.0000
153100.0000 0.0000
153200.0000 0.0000
153300.0000 0.0000
153400.0000 0.0000
153500.0000 0.0000
153600.0000 0.0000
153700.0000 0.0000
153800.0000 0.0000
153900.0000 0.0000
154000.0000 0.0000
154100.0000 0.0000
154200.0000 0.0000
154300.0000 0.0000
154400.0000 0.0000
154500.0000 0.0000
154600.0000 0.0000
154700.0000 0.0000
154800.0000 0.0000
154900.0000 0.0000
155000.0000 0.0000
155100.0000 0.0000
155200.0000 0.0000
155300.0000 0.0000
155400.0000 0.0000
155500.0000 0.0000
155600.0000 0.0000
155700.0000 0.0000
155800.0000 0.0000
155900.0000 0.0000
156000.0000 0.0000
156100.0000 0.0000
156200.0000 0.0000
156300.0000 0.0000
156400.0000 0.0000
156500.0000 0.0000
156600.0000 0.0000
156700.0000 0.0000
156800.0000 0.0000
156900.0000 0.0000
157000.0000 0.0000
157100.0000 0.0000
157200.0000 0.0000
157300.0000 0.0000
157400.0000 0.0000
157500.0000 0.0000
157600.0000 0.0000
157700.0000 0.0000
157800.0000 0.0000
157900.0000 0.0000
158000.0000 0.0000
158100.0000 0.0000
158200.0000 0.0000
158300.0000 0.0000
158400.0000 0.0000
158500.0000 0.0000
158600.0000 0.0000
158700.0000 0.0000
158800.0000 0.0000
158900.0000 0.0000
159000.0000 0.0000
159100.0000 0.0000
159200.0000 0.0000
159300.0000 0.0000
159400.0000 0.0000
159500.0000 0.0000
159600.0000 0.0000
159700.0000 0.0000
159800.0000 0.0000
159900.0000 0.0000
160000.0000 0.0000
160100.0000 0.0000
160200.0000 0.0000
160300.0000 0.0000
160400.0000 0.0000
160500.0000 0.0000
160600.0000 0.0000
160700.0000 0.0000
160800.0000 0.0000
160900.0000 0.0000
161000.0000 0.0000
161100.0000 0.0000
161200.0000 0.0000
161300.0000 0.0000
161400.0000 0.0000
161500.0000 0.0000
161600.0000 0.0000
161700.0000 0.0000
161800.0000 0.0000
161900.0000 0.0000
162000.0000 0.0000
162100.0000 0.0000
162200.0000 0.0000
162300.0000 0.0000
162400.0000 0.0000
162500.0000 0.0000
162600.0000 0.0000
162700.0000 0.0000
162800.0000 0.0000
162900.0000 0.0000
163000.0000 0.0000
163100.0000 0.0000
163200.0000 0.0000
163300.0000 0.0000
163400.0000 0.0000
163500.0000 0.0000
163600.0000 0.0000
163700.0000 0.0000
163800.0000 0.0000
163900.0000 0.0000
164000.0000 0.0000
164100.0000 0.0000
164200.0000 0.0000
164300.0000 0.0000
164400.0000 0.0000
164500.0000 0.0000
164600.0000 0.0000
164700.0000 0.0000
164800.0000 0.0000
164900.0000 0.0000
165000.0000 0.0000
165100.0000 0.0000
165200.0000 0.0000
165300.0000 0.0000
165400.0000 0.0000
165500.0000 0.0000
165600.0000 0.0000
165700.0000 0.0000
165800.0000 0.0000
165900.0000 0.0000
166000.0000 0.0000
166100.0000 0.0000
166200.0000 0.0000
166300.0000 0.0000
166400.0000 0.0000
166500.0000 0.0000
166600.0000 0.0000
166700.0000 0.0000
166800.0000 0.0000
166900.0000 0.0000
167000.0000 0.0000
167100.0000 0.0000
167200.0000 0.0000
167300.0000 0.0000
167400.0000 0.0000
167500.0000 0.0000
167600.0000 0.0000
167700.0000 0.0000
167800.0000 0.0000
167900.0000 0.0000
168000.0000 0.0000
168100.0000 0.0000
168200.0000 0.0000
168300.0000 0.0000
168400.0000 0.0000
168500.0000 0.0000
168600.0000 0.0000
168700.0000 0.0000
168800.0000 0.0000
168900.0000 0.0000
169000.0000 0.0000
169100.0000 0.0000
169200.0000 0.0000
169300.0000 0.0000
169400.0000 0.0000
169500.0000 0.0000
169600.0000 0.0000
169700.0000 0.0000
169800.0000 0.0000
169900.0000 0.0000
170000.0000 0.0000
170100.0000 0.0000
170200.0000 0.0000
170300.0000 0.0000
170400.0000 0.0000
170500.0000 0.0000
170600.0000 0.0000
170700.0000 0.0000
170800.0000 0.0000
170900.0000 0.0000
171000.0000 0.0000
171100.0000 0.0000
171200.0000 0.0000
171300.0000 0.0000
171400.0000 0.0000
171500.0000 0.0000
171600.0000 0.0000
171700.0000 0.0000
171800.0000 0.0000
171900.0000 0.0000
172000.0000 0.0000
172100.0000 0.0000
172200.0000 0.0000
172300.0000 0.0000
172400.0000 0.0000
172500.0000 0.0000
172600.0000 0.0000
172700.0000 0.0000
172800.0000 0.0000
172900.0000 0.0000
173000.0000 0.0000
173100.0000 0.0000
173200.0000 0.0000
173300.0000 0.0000
173400.0000 0.0000
173500.0000 0.0000
173600.0000 0.0000
173700.0000 0.0000
173800.0000 0.0000
173900.0000 0.0000
174000.0000 0.0000
174100.0000 0.0000
174200.0000 0.0000
174300.0000 0.0000
174400.0000 0.0000
174500.0000 0.0000
174600.0000 0.0000
174700.0000 0.0000
174800.0000 0.0000
174900.0000 0.0000
175000.0000 0.0000
175100.0000 0.0000
175200.0000 0.0000
175300.0000 0.0000
175400.0000 0.0000
175500.0000 0.0000
175600.0000 0.0000
175700.0000 0.0000
175800.0000 0.0000
175900.0000 0.0000
176000.0000 0.0000
176100.0000 0.0000
176200.0000 0.0000
176300.0000 0.0000
176400.0000 0.0000
176500.0000 0.0000
176600.0000 0.0000
176700.0000 0.0000
176800.0000 0.0000
176900.0000 0.0000
177000.0000 0.0000
177100.0000 0.0000
177200.0000 0.0000
177300.0000 0.0000
177400.0000 0.0000
177500.0000 0.0000
177600.0000 0.0000
177700.0000 0.0000
177800.0000 0.0000
177900.0000 0.0000
178000.0000 0.0000
178100.0000 0.0000
178200.0000 0.0000
178300.0000 0.0000
178400.0000 0.0000
178500.0000 0.0000
178600.0000 0.0000
178700.0000 0.0000
178800.0000 0.0000
178900.0000 0.0000
179000.0000 0.0000
179100.0000 0.0000
179200.0000 0.0000
179300.0000 0.0000
179400.0000 0.0000
179500.0000 0.0000
179600.0000 0.0000
179700.0000 0.0000
179800.0000 0.0000
179900.0000 0.0000
180000.0000 0.0000
180100.0000 0.0000
180200.0000 0.0000
180300.0000 0.0000
180400.0000 0.0000
180500.0000 0.0000
180600.0000 0.0000
180700.0000 0.0000
180800.0000 0.0000
180900.0000 0.0000
181000.0000 0.0000
181100.0000 0.0000
181200.0000 0.0000
181300.0000 0.0000
181400.0000 0.0000
181500.0000 0.0000
181600.0000 0.0000
181700.0000 0.0000
181800.0000 0.0000
181900.0000 0.0000
182000.0000 0.0000
182100.0000 0.0000
182200.0000 0.0000
182300.0000 0.0000
182400.0000 0.0000
182500.0000 0.0000
182600.0000 0.0000
182700.0000 0.0000
182800.0000 0.0000
182900.0000 0.0000
183000.0000 0.0000
183100.0000 0.0000
183200.0000 0.0000
183300.0000 0.0000
183400.0000 0.0000
183500.0000 0.0000
183600.0000 0.0000
183700.0000 0.0000
183800.0000 0.0000
183900.0000 0.0000
184000.0000 0.0000
184100.0000 0.0000
184200.0000 0.0000
184300.0000 0.0000
184400.0000 0.0000
184500.0000 0.0000
184600.0000 0.0000
184700.0000 0.0000
184800.0000 0.0000
184900.0000 0.0000
185000.0000 0.0000
185100.0000 0.0000
185200.0000 0.0000
185300.0000 0.0000
185400.0000 0.0000
185500.0000 0.0000
185600.0000 0.0000
185700.0000 0.0000
185800.0000 0.0000
185900.0000 0.0000
186000.0000 0.0000
186100.0000 0.0000
186200.0000 0.0000
186300.0000 0.0000
186400.0000 0.0000
186500.0000 0.0000
186600.0000 0.0000
186700.0000 0.0000
186800.0000 0.0000
186900.0000 0.0000
187000.0000 0.0000
187100.0000 0.0000
187200.0000 0.0000
187300.0000 0.0000
187400.0000 0.0000
187500.0000 0.0000
187600.0000 0.0000
187700.0000 0.0000
187800.0000 0.0000
187900.0000 0.0000
188000.0000 0.0000
188100.0000 0.0000
188200.0000 0.0000
188300.0000 5.3927
188400.0000 0.0000
188500.0000 0.0000
188600.0000 0.0000
188700.0000 0.0000
188800.0000 0.0000
188900.0000 0.0000
189000.0000 0.0000
189100.0000 0.0000
189200.0000 0.0000
189300.0000 0.0000
189400.0000 0.0000
189500.0000 0.0000
189600.0000 0.0000
189700.0000 0.0000
189800.0000 0.0000
189900.0000 0.0000
190000.0000 0.0000
190100.0000 0.0000
190200.0000 0.0000
190300.0000 0.0000
190400.0000 0.0000
190500.0000 0.0000
190600.0000 0.0000
190700.0000 0.0000
190800.0000 0.0000
190900.0000 0.0000
191000.0000 0.0000
191100.0000 0.0000
191200.0000 0.0000
191300.0000 0.0000
191400.0000 0.0000
191500.0000 0.0000
191600.0000 0.0000
191700.0000 0.0000
191800.0000 0.0000
191900.0000 0.0000
192000.0000 0.0000
192100.0000 0.0000
192200.0000 0.0000
192300.0000 0.0000
192400.0000 0.0000
192500.0000 0.0000
192600.0000 0.0000
192700.0000 0.0000
192800.0000 0.0000
192900.0000 0.0000
193000.0000 0.0000
193100.0000 0.0000
193200.0000 0.0000
193300.0000 0.0000
193400.0000 0.0000
193500.0000 0.0000
193600.0000 0.0000
193700.0000 0.0000
193800.0000 0.0000
193900.0000 0.0000
194000.0000 0.0000
194100.0000 0.0000
194200.0000 0.0000
194300.0000 0.0000
194400.0000 0.0000
194500.0000 0.0000
194600.0000 0.0000
194700.0000 0.0000
194800.0000 0.0000
194900.0000 0.0000
195000.0000 0.0000
195100.0000 0.0000
195200.0000 0.0000
195300.0000 0.0000
195400.0000 0.0000
195500.0000 0.0000
195600.0000 0.0000
195700.0000 0.0000
195800.0000 0.0000
195900.0000 0.0000
196000.0000 0.0000
196100.0000 0.0000
196200.0000 0.0000
196300.0000 0.0000
196400.0000 0.0000
196500.0000 0.0000
196600.0000 0.0000
196700.0000 0.0000
196800.0000 0.0000
196900.0000 0.0000
197000.0000 0.0000
197100.0000 0.0000
197200.0000 0.0000
197300.0000 0.0000
197400.0000 0.0000
197500.0000 0.0000
197600.0000 0.0000
197700.0000 0.0000
197800.0000 0.0000
197900.0000 0.0000
198000.0000 0.0000
198100.0000 0.0000
198200.0000 0.0000
198300.0000 0.0000
198400.0000 0.0000
198500.0000 0.0000
198600.0000 0.0000
198700.0000 0.0000
198800.0000 0.0000
198900.0000 0.0000
199000.0000 0.0000
199100.0000 0.0000
199200.0000 0.0000
199300.0000 0.0000
199400.0000 0.0000
199500.0000 0.0000
199600.0000 0.0000
199700.0000 0.0000
199800.0000 0.0000
199900.0000 0.0000
200000.0000 0.0000
